f [MHz]	U [dBuV]
100,0	93,5027933120728
200,0	93,5027933120728
300,0	93,5027933120728
400,0	93,5027933120728
500,0	93,5027933120728
600,0	93,5027933120728
700,0	93,5027933120728
800,0	93,5027933120728
900,0	93,5027933120728
1000,0	93,5027933120728
