f [Hz]	U [V]
1000,0;1,0010333387161503
2000,0;0,0011405883855994674
3000,0;0,001229513710137419
4000,0;1,0004990007490246
5000,0;1,00040762841076
6000,0;1,0002657601630367
7000,0;0,0014181290049535696
8000,0;1,0001968087665898
9000,0;1,0000636237901395
10000,0;0,9999698897152255
