f [Hz]	U [V]
1000,0;1,0006755115721715
2000,0;1,000550588431353
3000,0;1,0004080498464014
4000,0;1,000306642248698
5000,0;1,0001389844024513
6000,0;0,9999956001177894
7000,0;0,9999059955464775
8000,0;0,9998518792502997
9000,0;0,999818919589015
10000,0;0,9996507554543134
