f [MHz]	U [dBuV]
100,0	93,497896194458
200,0	93,499888420105
300,0	93,5997142791748
400,0	93,7403774261475
500,0	93,7888832092285
600,0	93,6297016143799
700,0	93,7419195175171
800,0	93,6252279281616
900,0	93,6382465362549
1000,0	93,615195274353
