f [Hz]	U [V]
1000,0;1,0009575594966242
2000,0;1,0007731234206738
3000,0;1,0006021761136812
4000,0;1,0004405852436173
5000,0;1,000336988443319
6000,0;1,000203636589669
7000,0;1,0001343457819667
8000,0;1,0000601674521932
9000,0;0,9999143394064955
10000,0;0,9999191449041805
