f [Hz]	U [V]
1000,0;1,000967758804836
2000,0;1,0007758217401508
3000,0;1,000633619738027
4000,0;1,000476831537221
5000,0;1,00027798462507
6000,0;1,0001955444596649
7000,0;1,0001572758406672
8000,0;0,9999873382821581
9000,0;0,9999118956454598
10000,0;0,9998559239010882
